Temperature profile for Jupiter
From CIRS team
Glenn Orton
June 10, 2005
 
#        p[hPa]        T[K]    dT[K]
71
       1.000e+00     166.000     0.
       1.122e+00     165.550     0.
       1.259e+00     165.100     0.
       1.413e+00     164.600     0.
       1.585e+00     164.100     0.
       1.778e+00     163.550     0.
       1.995e+00     163.000     0.
       2.239e+00     162.400     0.
       2.512e+00     161.800     0.
       2.818e+00     161.050     0.
       3.162e+00     160.300     0.
       3.548e+00     159.350     0.
       3.981e+00     158.400     0.
       4.467e+00     157.300     0.
       5.012e+00     156.200     0.
       5.623e+00     154.800     0.
       6.310e+00     153.400     0.
       7.079e+00     151.600     0.
       7.943e+00     149.800     0.
       8.913e+00     147.900     0.
       1.000e+01     146.000     0.
       1.122e+01     144.200     0.
       1.259e+01     142.400     0.
       1.413e+01     140.450     0.
       1.585e+01     138.500     0.
       1.778e+01     136.750     0.
       1.995e+01     135.000     0.
       2.239e+01     132.750     0.
       2.512e+01     130.500     0.
       2.818e+01     128.750     0.
       3.162e+01     127.000     0.
       3.548e+01     125.250     0.
       3.981e+01     123.500     0.
       4.467e+01     121.800     0.
       5.012e+01     120.100     0.
       5.623e+01     118.700     0.
       6.310e+01     117.300     0.
       7.079e+01     115.900     0.
       7.943e+01     114.500     0.
       8.913e+01     113.950     0.
       1.000e+02     113.400     0.
       1.122e+02     114.040     0.
       1.259e+02     114.680     0.
       1.413e+02     115.470     0.
       1.585e+02     116.260     0.
       1.778e+02     117.250     0.
       1.995e+02     118.250     0.
       2.239e+02     119.500     0.
       2.512e+02     120.750     0.
       2.818e+02     122.320     0.
       3.162e+02     123.890     0.
       3.548e+02     125.880     0.
       3.981e+02     127.860     0.
       4.467e+02     131.080     0.
       5.012e+02     134.300     0.
       5.623e+02     138.850     0.
       6.310e+02     143.410     0.
       7.079e+02     148.810     0.
       7.943e+02     154.210     0.
       8.913e+02     160.160     0.
       1.000e+03     166.100     0.
       1.122e+03     172.460     0.
       1.259e+03     178.830     0.
       1.413e+03     185.620     0.
       1.413e+03     185.620     0.
       1.778e+03     199.660     0.
       1.995e+03     206.900     0.
       2.239e+03     214.600     0.
       2.512e+03     222.310     0.
       2.818e+03     230.510     0.
       3.162e+03     238.710     0.
