Held_Suarez temperature profile adapted from the 1976 US Standard Atmosphere
U.S. Standard Atmosphere, 1976, U.S. Government Printing Office, Washington, D.C., 1976.
The temperature has been set to 200K for high altitudes to be consistent
with the forcing.
.
#  p[hPa]     T[K]    dT[K]
162
    0.0089    200.     0.
    0.0097    200.     0.
    0.0105    200.     0.
    0.0115    200.     0.
    0.0125    200.     0.
    0.0136    200.     0.
    0.0148    200.     0.
    0.0161    200.     0.
    0.0175    200.     0.
    0.0190    200.     0.
    0.0207    200.     0.
    0.0225    200.     0.
    0.0244    200.     0.
    0.0265    200.     0.
    0.0287    200.     0.
    0.0311    200.     0.
    0.0337    200.     0.
    0.0365    200.     0.
    0.0396    200.     0.
    0.0428    200.     0.
    0.0463    200.     0.
    0.0501    200.     0.
    0.0542    200.     0.
    0.0585    200.     0.
    0.0632    200.     0.
    0.0682    200.     0.
    0.0736    200.     0.
    0.0794    200.     0.
    0.0855    200.     0.
    0.0921    200.     0.
    0.0992    200.     0.
    0.1068    200.     0.
    0.1149    200.     0.
    0.1236    200.     0.
    0.1328    200.     0.
    0.1427    200.     0.
    0.1533    200.     0.
    0.1646    200.     0.
    0.1766    200.     0.
    0.1894    200.     0.
    0.2031    200.     0.
    0.2177    200.     0.
    0.2333    200.     0.
    0.2499    200.     0.
    0.2675    200.     0.
    0.2863    200.     0.
    0.3063    200.     0.
    0.3275    200.     0.
    0.3501    200.     0.
    0.3742    200.     0.
    0.3997    200.     0.
    0.4268    200.     0.
    0.4556    200.     0.
    0.4862    200.     0.
    0.5187    200.     0.
    0.5531    200.     0.
    0.5896    200.     0.
    0.6283    200.     0.
    0.6694    200.     0.
    0.7130    200.     0.
    0.7594    200.     0.
    0.8089    200.     0.
    0.8616    200.     0.
    0.9178    200.     0.
    0.9775    200.     0.
    1.0412    200.     0.
    1.1091    200.     0.
    1.1815    200.     0.
    1.2591    200.     0.
    1.3422    200.     0.
    1.4313    200.     0.
    1.5269    200.     0.
    1.6294    200.     0.
    1.7393    200.     0.
    1.8574    200.     0.
    1.9841    200.     0.
    2.1203    200.     0.
    2.2666    200.     0.
    2.4240    200.     0.
    2.5932    200.     0.
    2.7752    200.     0.
    2.9712    200.     0.
    3.1822    200.     0.
    3.4095    200.     0.
    3.6545    200.     0.
    3.9187    200.     0.
    4.2037    200.     0.
    4.5112    200.     0.
    4.8432    200.     0.
    5.2018    200.     0.
    5.5892    200.     0.
    6.0081    200.     0.
    6.4612    200.     0.
    6.9515    200.     0.
    7.4823    200.     0.
    8.0572    200.     0.
    8.6802    200.     0.
    9.3543    200.     0.
   10.0823    200.     0.
   10.8688    200.     0.
   11.7187    200.     0.
   12.6370    200.     0.
   13.6296    200.     0.
   14.7027    200.     0.
   15.8629    200.     0.
   17.1175    200.     0.
   18.4746    200.     0.
   19.9426    200.     0.
   21.5309    200.     0.
   23.2498    200.     0.
   25.1102    200.     0.
   27.1242    200.     0.
   29.3049    200.     0.
   31.6665    200.     0.
   34.2243    200.     0.
   36.9954    200.     0.
   39.9979    200.     0.
   43.2518    200.     0.
   46.7789    200.     0.
   54.7489    200.     0.
   59.2403    200.     0.
   64.1001    200.     0.
   69.3586    200.     0.
   75.0484    200.     0.
   81.2051    200.     0.
   87.8668    200.     0.
   95.0750    200.     0.
  102.8746    200.     0.
  111.3140    200.     0.
  120.4457    200.     0.
  130.3266    201.     0.
  141.0180    202.     0.
  152.5865    204.     0.
  165.1041    206.     0.
  178.6485    208.     0.
  193.3041    211.     0.
  209.1619    214.     0.
  226.3206    216.65   0.
  244.7437    219.90   0.
  264.3627    223.15   0.
  285.2362    226.40   0.
  307.4246    229.65   0.
  330.9904    232.90   0.
  355.9981    236.15   0.
  382.5142    239.40   0.
  410.6074    242.65   0.
  440.3485    245.90   0.
  471.8103    249.15   0.
  505.0680    252.40   0.
  540.1991    255.65   0.
  577.2832    258.90   0.
  616.4024    262.15   0.
  657.6408    265.40   0.
  701.0854    268.65   0.
  746.8253    271.90   0.
  794.9522    275.15   0.
  845.5600    278.40   0.
  898.7457    281.65   0.
  954.6084    284.90   0.
 1013.2500    288.15   0.
 1074.7751    291.40   0.
 1139.2908    294.65   0.
